# E (eV)   ldos(E)   pdos(E)    pdos(E)    pdos(E)   
  -0.342  0.505E-01  0.840E-02  0.210E-01  0.210E-01
  -0.242  0.437E-01  0.734E-02  0.182E-01  0.182E-01
  -0.142  0.364E-01  0.615E-02  0.151E-01  0.151E-01
  -0.042  0.329E-01  0.545E-02  0.137E-01  0.137E-01
   0.058  0.338E-01  0.427E-02  0.148E-01  0.148E-01
   0.158  0.247E-01  0.398E-02  0.103E-01  0.103E-01
   0.258  0.210E-01  0.418E-02  0.841E-02  0.841E-02
   0.358  0.207E-01  0.450E-02  0.809E-02  0.809E-02
   0.458  0.254E-01  0.499E-02  0.102E-01  0.102E-01
   0.558  0.285E-01  0.613E-02  0.112E-01  0.112E-01
   0.658  0.346E-01  0.720E-02  0.137E-01  0.137E-01
   0.758  0.404E-01  0.931E-02  0.155E-01  0.155E-01
   0.858  0.430E-01  0.114E-01  0.158E-01  0.158E-01
   0.958  0.419E-01  0.100E-01  0.160E-01  0.160E-01
   1.058  0.420E-01  0.947E-02  0.163E-01  0.163E-01
   1.158  0.426E-01  0.940E-02  0.166E-01  0.166E-01
   1.258  0.435E-01  0.987E-02  0.168E-01  0.168E-01
   1.358  0.421E-01  0.826E-02  0.169E-01  0.169E-01
   1.458  0.418E-01  0.769E-02  0.170E-01  0.170E-01
   1.558  0.416E-01  0.698E-02  0.173E-01  0.173E-01
   1.658  0.416E-01  0.661E-02  0.175E-01  0.175E-01
   1.758  0.415E-01  0.631E-02  0.176E-01  0.176E-01
   1.858  0.419E-01  0.615E-02  0.179E-01  0.179E-01
   1.958  0.423E-01  0.627E-02  0.180E-01  0.180E-01
   2.058  0.434E-01  0.641E-02  0.185E-01  0.185E-01
   2.158  0.454E-01  0.679E-02  0.193E-01  0.193E-01
   2.258  0.478E-01  0.722E-02  0.203E-01  0.203E-01
   2.358  0.510E-01  0.787E-02  0.216E-01  0.216E-01
   2.458  0.570E-01  0.914E-02  0.239E-01  0.239E-01
   2.558  0.641E-01  0.100E-01  0.270E-01  0.270E-01
   2.658  0.645E-01  0.103E-01  0.271E-01  0.271E-01
   2.758  0.606E-01  0.103E-01  0.251E-01  0.251E-01
   2.858  0.591E-01  0.104E-01  0.243E-01  0.243E-01
   2.958  0.609E-01  0.105E-01  0.252E-01  0.252E-01
   3.058  0.650E-01  0.105E-01  0.272E-01  0.272E-01
   3.158  0.673E-01  0.105E-01  0.284E-01  0.284E-01
   3.258  0.624E-01  0.103E-01  0.260E-01  0.260E-01
   3.358  0.619E-01  0.107E-01  0.256E-01  0.256E-01
   3.458  0.657E-01  0.114E-01  0.271E-01  0.271E-01
   3.558  0.703E-01  0.120E-01  0.292E-01  0.292E-01
   3.658  0.767E-01  0.120E-01  0.323E-01  0.323E-01
   3.758  0.797E-01  0.110E-01  0.343E-01  0.343E-01
   3.858  0.834E-01  0.109E-01  0.362E-01  0.362E-01
   3.958  0.881E-01  0.115E-01  0.383E-01  0.383E-01
   4.058  0.976E-01  0.134E-01  0.421E-01  0.421E-01
   4.158  0.954E-01  0.127E-01  0.413E-01  0.413E-01
   4.258  0.924E-01  0.129E-01  0.398E-01  0.398E-01
   4.358  0.911E-01  0.134E-01  0.388E-01  0.388E-01
   4.458  0.880E-01  0.135E-01  0.372E-01  0.372E-01
   4.558  0.945E-01  0.153E-01  0.396E-01  0.396E-01
   4.658  0.972E-01  0.168E-01  0.402E-01  0.402E-01
   4.758  0.982E-01  0.187E-01  0.397E-01  0.397E-01
   4.858  0.909E-01  0.181E-01  0.364E-01  0.364E-01
   4.958  0.865E-01  0.181E-01  0.342E-01  0.342E-01
   5.058  0.832E-01  0.176E-01  0.328E-01  0.328E-01
   5.158  0.793E-01  0.171E-01  0.311E-01  0.311E-01
   5.258  0.765E-01  0.152E-01  0.307E-01  0.307E-01
   5.358  0.776E-01  0.142E-01  0.317E-01  0.317E-01
   5.458  0.799E-01  0.168E-01  0.316E-01  0.316E-01
   5.558  0.786E-01  0.158E-01  0.314E-01  0.314E-01
   5.658  0.746E-01  0.124E-01  0.311E-01  0.311E-01
   5.758  0.609E-01  0.112E-01  0.248E-01  0.248E-01
   5.858  0.585E-01  0.116E-01  0.234E-01  0.234E-01
   5.958  0.560E-01  0.119E-01  0.221E-01  0.221E-01
   6.058  0.609E-01  0.125E-01  0.242E-01  0.242E-01
   6.158  0.623E-01  0.127E-01  0.248E-01  0.248E-01
   6.258  0.608E-01  0.126E-01  0.241E-01  0.241E-01
   6.358  0.599E-01  0.111E-01  0.244E-01  0.244E-01
   6.458  0.656E-01  0.997E-02  0.278E-01  0.278E-01
   6.558  0.671E-01  0.970E-02  0.287E-01  0.287E-01
   6.658  0.648E-01  0.923E-02  0.278E-01  0.278E-01
   6.758  0.628E-01  0.890E-02  0.269E-01  0.269E-01
   6.858  0.610E-01  0.850E-02  0.262E-01  0.262E-01
   6.958  0.596E-01  0.814E-02  0.257E-01  0.257E-01
   7.058  0.587E-01  0.782E-02  0.255E-01  0.255E-01
   7.158  0.576E-01  0.758E-02  0.250E-01  0.250E-01
   7.258  0.557E-01  0.709E-02  0.243E-01  0.243E-01
   7.358  0.538E-01  0.666E-02  0.236E-01  0.236E-01
   7.458  0.521E-01  0.631E-02  0.229E-01  0.229E-01
   7.558  0.506E-01  0.585E-02  0.224E-01  0.224E-01
   7.658  0.491E-01  0.541E-02  0.218E-01  0.218E-01
   7.758  0.473E-01  0.500E-02  0.211E-01  0.211E-01
   7.858  0.455E-01  0.467E-02  0.204E-01  0.204E-01
   7.958  0.437E-01  0.424E-02  0.197E-01  0.197E-01
   8.058  0.422E-01  0.399E-02  0.191E-01  0.191E-01
   8.158  0.414E-01  0.391E-02  0.188E-01  0.188E-01
   8.258  0.408E-01  0.390E-02  0.185E-01  0.185E-01
   8.358  0.405E-01  0.395E-02  0.183E-01  0.183E-01
   8.458  0.404E-01  0.408E-02  0.182E-01  0.182E-01
   8.558  0.403E-01  0.424E-02  0.180E-01  0.180E-01
   8.658  0.402E-01  0.445E-02  0.179E-01  0.179E-01
   8.758  0.402E-01  0.470E-02  0.178E-01  0.178E-01
   8.858  0.404E-01  0.499E-02  0.177E-01  0.177E-01
   8.958  0.405E-01  0.531E-02  0.176E-01  0.176E-01
   9.058  0.402E-01  0.543E-02  0.174E-01  0.174E-01
   9.158  0.403E-01  0.577E-02  0.173E-01  0.173E-01
   9.258  0.403E-01  0.609E-02  0.171E-01  0.171E-01
   9.358  0.417E-01  0.649E-02  0.176E-01  0.176E-01
   9.458  0.445E-01  0.700E-02  0.187E-01  0.187E-01
   9.558  0.471E-01  0.760E-02  0.198E-01  0.198E-01
   9.658  0.504E-01  0.821E-02  0.211E-01  0.211E-01
   9.758  0.539E-01  0.889E-02  0.225E-01  0.225E-01
   9.858  0.565E-01  0.966E-02  0.234E-01  0.234E-01
   9.958  0.598E-01  0.105E-01  0.247E-01  0.247E-01
  10.058  0.637E-01  0.112E-01  0.262E-01  0.262E-01
  10.158  0.648E-01  0.119E-01  0.265E-01  0.265E-01
